File: Estabilização QDs_MAPI73.csv
Concentration,VOC,JSC,ff,PCE
0,0.999995,21.3432,0.560882,11.9709
0,0.875077,18.3142,0.616703,9.883464
0,0.54992,17.2025,0.355312,3.361248
0,0.875058,24.5252,0.676006,14.5077
7,0.949881,24.7071,0.490942,11.5218
7,0.900158,18.9249,0.501796,8.548321
7,0.900172,16.6699,0.465846,6.990386
7,0.975064,22.8283,0.555764,12.37078
15,0.949722,22.0638,0.510936,10.7064
15,0.874798,15.9039,0.445055,6.191908
15,0.924877,18.7648,0.464884,8.068101
15,0.949722,24.5651,0.553036,12.9024
29,0.949923,20.4825,0.481608,9.370552
29,0.900195,15.4947,0.384283,5.36007
29,0.900205,18.0795,0.413832,6.73521
29,0.949899,23.9543,0.542234,12.3381
36,0.949707,20.088,0.482279,9.20077
36,0.924841,15.5553,0.427334,6.147687
36,0.949695,17.4901,0.425203,7.06272
36,0.949704,23.3293,0.528384,11.7068
43,0.949728,21.0739,0.461343,9.233542
43,0.799895,15.8898,0.429944,5.464671
43,0.84997,18.0301,0.423879,6.495955
43,0.949722,23.8362,0.519875,11.7688
50,0.9248916,16.7442,0.480221,7.43699
50,0.8748742,11.5114,0.403816,4.06682
50,0.9249373,14.3539,0.274889,3.64955
50,0.9497914,21.0763,0.487128,9.75136