File: Estabilização QDs_MAPI2,4.csv
Concentration,VOC,JSC,ff,PCE
0,0.900298,19.4225,0.413355,7.22793
0,0.975219,15.0482,0.565511,8.29905
0,0.950037,17.5858,0.547391,9.145352
0,0.975224,23.2985,0.57366,13.0343
7,0.949895,22.5221,0.564468,12.07603
7,0.850113,17.945,0.694475,10.5944
7,0.900152,17.3928,0.611791,9.578319
7,0.999924,23.6885,0.587193,13.9087
15,0.974974,22.1069,0.502627,10.83347
15,0.874883,16.8515,0.652459,9.619245
15,0.749896,15.854,0.494564,5.879801
15,0.974977,22.5978,0.574973,12.668
29,0.949921,21.8948,0.445343,9.262418
29,0.875013,16.5447,0.566737,8.204535
29,0.850164,15.0324,0.491005,6.275028
29,0.975121,22.1478,0.509491,11.0034
36,0.949715,21.2039,0.465692,9.377974
36,0.94973,17.0893,0.579043,9.397999
36,0.874812,14.8783,0.583873,7.599526
36,0.974887,21.3156,0.515307,10.7082
43,0.949741,22.4485,0.442634,9.437077
43,0.949739,18.4709,0.557845,9.786005
43,0.924894,15.2801,0.541858,7.657785
43,0.974914,21.9534,0.515587,11.035
50,0.9498602,20.3617,0.399462,7.72591
50,0.8500957,16.8023,0.498883,7.12584
50,0.7748219,15.3694,0.54705,6.51459
50,0.9250031,19.3175,0.463678,8.28535