File: Estabilização QDs_MAPI7,3.csv
Concentration,VOC,JSC,ff,PCE
0,0.875089,15.6033,0.426349,5.821497
0,0.800152,18.2109,0.424489,6.185427
0,0.850229,17.0518,0.49574,7.187192
0,0.875085,21.3677,0.623778,11.66376
7,0.874978,18.3454,0.433126,6.952457
7,0.824913,19.9918,0.451285,7.442362
7,0.800052,19.5704,0.47231,7.395109
7,0.900181,17.6244,0.532842,8.453632
15,0.874833,13.00243,0.428536,4.874574
15,0.774694,17.8876,0.44381,6.150079
15,0.849982,18.5741,0.493992,7.798971
15,0.87485,11.8281,0.568061,5.878203
29,0.87495,13.5189,0.387381,4.582075
29,0.800056,18.4797,0.451613,6.676997
29,0.850125,20.0298,0.474987,8.088017
29,0.850116,10.8698,0.552065,5.101395
36,0.874802,11.4936,0.453911,4.563889
36,0.749814,17.0343,0.439416,5.612473
36,0.849919,17.4832,0.494372,7.346036
36,0.849931,11.0874,0.561024,5.286832
43,0.87482,15.3467,0.388199,5.211806
43,0.649711,19.0628,0.403646,4.999272
43,0.149583,16.1161,0.27742,0.668775
43,0.874812,12.56836,0.4933,5.423813
50,0.8749185,12.4261,0.386545,4.20244
50,0.7499303,18.5702,0.437865,6.09788
50,0.8248685,16.5113,0.475844,6.48085
50,0.8500655,10.6922,0.52612,4.78196