File: Estabilização MAPI.csv
Concentration,VOC,JSC,ff,PCE
0,0.999964,23.7147,0.583587,13.8391
0,0.875014,17.5133,0.61349,9.401353
0,0.875029,17.6289,0.609457,9.401353
0,0.999967,25.6856,0.568943,14.6131
7,0.925018,23.6208,0.58,12.6511
7,0.900153,18.9683,0.62498,10.6712
7,0.900157,19.9899,0.593038,10.6712
7,0.874961,26.4998,0.652577,15.1309
15,0.97497,23.6593,0.569677,13.1408
15,0.674648,17.9967,0.369345,4.484386
15,0.674644,18.8422,0.352774,4.484386
15,0.97497,25.2949,0.623758,15.383
29,0.924962,23.6035,0.469725,10.2552
29,0.924982,14.7606,0.466031,6.362852
29,0.925001,13.5422,0.50795,6.362852
29,0.924997,23.8217,0.546387,12.0397
36,0.924816,21.6208,0.468891,9.375594
36,0.949677,16.6975,0.47973,7.607196
36,0.949685,17.0,0.472552,7.607196
36,0.949717,22.5663,0.538154,11.5335
43,0.924854,20.8871,0.488416,9.434991
43,0.874853,17.1088,0.484079,7.245535
43,0.874807,18.4459,0.449012,7.245535
43,0.949727,23.3637,0.534408,11.85806
50,0.9248013,19.1616,0.459929,8.15026
50,0.924821,15.2,0.473044,6.6589
50,0.9248606,14.3801,0.500685,6.6589
50,0.9497435,20.9095,0.528315,10.4916